Data from glaucus_ven_HW_orange_left_2_Reflection__0__93.txt Node

Date: Sun Dec 11 15:36:12 EST 2022
User: abbyrobinson
Spectrometer: USB2G8287
Scans to average: 10
Trigger mode: 4
Integration Time (sec): 1.000000E-1
Electric dark correction enabled: true
Boxcar width: 5
XAxis mode: Wavelengths
Number of Pixels in Spectrum: 2048
>>>>>Begin Spectral Data<<<<<
177.272	-252.38
177.658	1375.93
178.044	-262.63
178.43	-287.5
178.816	-64.65
179.203	-51.17
179.589	49.23
179.975	68.19
180.361	46.09
180.747	-7.18
181.133	-52.78
181.519	-11.62
181.904	1375.93
182.29	-123.77
182.676	-271.3
183.062	-71.39
183.447	-155.98
183.833	2327.78
184.219	-80.41
184.604	-68.19
184.99	-55.12
185.375	-41.5
185.761	-35.19
186.146	-6.23
186.531	-2.66
186.917	-1.51
187.302	2.44
187.687	7.05
188.073	11.02
188.458	9.46
188.843	6.85
189.228	2.57
189.613	5.95
189.998	7.87
190.383	6.53
190.768	-0.28
191.153	3.37
191.538	-1.17
191.923	-3.59
192.307	-7.03
192.692	-7.95
193.077	-6.82
193.461	-7.16
193.846	-10.45
194.231	-9.89
194.615	-14.83
195	-7.61
195.384	-6.37
195.769	-2.9
196.153	-9.02
196.537	-11.93
196.922	-11.99
197.306	-14.84
197.69	-13.21
198.074	-11.84
198.458	-10.68
198.843	-9.2
199.227	-8.59
199.611	-12.12
199.995	-15.63
200.379	-9.84
200.763	-4.8
201.146	0.49
201.53	6.08
201.914	8.89
202.298	12.36
202.681	11.63
203.065	16.32
203.449	17.63
203.832	18.58
204.216	18.15
204.599	26.35
204.983	26.32
205.366	22.31
205.75	21.09
206.133	21.34
206.516	18.6
206.9	20.31
207.283	19.22
207.666	11.02
208.049	14.13
208.432	14.39
208.815	4.46
209.198	3.23
209.581	5.66
209.964	4.46
210.347	4.9
210.73	5.43
211.113	4.13
211.496	1.71
211.879	6.96
212.261	6.53
212.644	8.06
213.027	5.52
213.409	6.99
213.792	8.62
214.174	9.14
214.557	6.75
214.939	6.01
215.322	3.65
215.704	5.67
216.086	4.74
216.469	1.63
216.851	4.13
217.233	5.97
217.615	3.52
217.997	2.6
218.379	3.52
218.761	4.35
219.143	3.3
219.525	2.67
219.907	1.55
220.289	3.05
220.671	3.5
221.053	-0.42
221.435	1.71
221.816	4.87
222.198	3.1
222.58	3.17
222.961	4.48
223.343	4.92
223.724	5.34
224.106	4.46
224.487	3.92
224.869	5.43
225.25	6.42
225.631	5.15
226.013	3.93
226.394	5.46
226.775	4.55
227.156	3.58
227.537	5.03
227.919	4.87
228.3	3.99
228.681	3.79
229.062	3.56
229.442	3.41
229.823	3.8
230.204	4.37
230.585	5.28
230.966	5.21
231.347	5.42
231.727	4.78
232.108	5.39
232.488	6.4
232.869	6.4
233.25	6.33
233.63	6.68
234.01	6.7
234.391	6.9
234.771	6.49
235.152	6.48
235.532	6.73
235.912	7
236.292	6.79
236.672	6.77
237.053	6.86
237.433	6.5
237.813	6.56
238.193	6.45
238.573	6.15
238.953	6.11
239.333	6.6
239.712	6.84
240.092	6.71
240.472	6.68
240.852	6.54
241.231	6.39
241.611	6.29
241.991	6.15
242.37	6.07
242.75	6.16
243.129	6.13
243.509	5.77
243.888	5.48
244.267	5.57
244.647	5.72
245.026	5.74
245.405	5.83
245.784	5.94
246.164	5.97
246.543	5.94
246.922	5.82
247.301	5.75
247.68	5.82
248.059	5.81
248.438	5.75
248.817	5.7
249.195	5.7
249.574	5.62
249.953	5.61
250.332	5.59
250.71	5.66
251.089	5.7
251.468	5.73
251.846	5.7
252.225	5.72
252.603	5.71
252.982	5.58
253.36	5.54
253.738	5.47
254.117	5.47
254.495	5.46
254.873	5.42
255.251	5.38
255.63	5.33
256.008	5.3
256.386	5.32
256.764	5.29
257.142	5.33
257.52	5.3
257.898	5.28
258.276	5.23
258.653	5.15
259.031	5.07
259.409	5.07
259.787	5.09
260.164	5.07
260.542	5.08
260.92	5.06
261.297	5.05
261.675	5.06
262.052	5.12
262.43	5.15
262.807	5.14
263.184	5.15
263.562	5.15
263.939	5.1
264.316	5.09
264.693	4.96
265.07	4.92
265.448	4.88
265.825	4.9
266.202	4.84
266.579	4.76
266.956	4.8
267.333	4.81
267.709	4.78
268.086	4.78
268.463	4.74
268.84	4.79
269.216	4.75
269.593	4.69
269.97	4.56
270.346	4.53
270.723	4.53
271.099	4.44
271.476	4.37
271.852	4.29
272.229	4.22
272.605	4.23
272.981	4.21
273.358	4.24
273.734	4.27
274.11	4.26
274.486	4.2
274.862	4.12
275.238	4.14
275.614	4.18
275.99	4.18
276.366	4.2
276.742	4.18
277.118	4.15
277.494	4.11
277.87	4.1
278.245	4.11
278.621	4.12
278.997	4.19
279.372	4.14
279.748	4.11
280.123	4.11
280.499	4.04
280.874	3.97
281.25	3.96
281.625	3.89
282	3.86
282.376	3.85
282.751	3.87
283.126	3.8
283.501	3.77
283.876	3.7
284.252	3.64
284.627	3.67
285.002	3.7
285.377	3.67
285.751	3.7
286.126	3.68
286.501	3.66
286.876	3.66
287.251	3.77
287.625	3.8
288	3.84
288.375	3.85
288.749	3.83
289.124	3.85
289.498	3.83
289.873	3.81
290.247	3.81
290.622	3.83
290.996	3.76
291.37	3.66
291.745	3.69
292.119	3.69
292.493	3.71
292.867	3.78
293.241	3.73
293.616	3.71
293.99	3.73
294.364	3.71
294.737	3.71
295.111	3.76
295.485	3.76
295.859	3.7
296.233	3.65
296.607	3.69
296.98	3.61
297.354	3.56
297.728	3.62
298.101	3.6
298.475	3.61
298.848	3.53
299.222	3.47
299.595	3.44
299.968	3.45
300.342	3.44
300.715	3.45
301.088	3.42
301.462	3.47
301.835	3.45
302.208	3.47
302.581	3.47
302.954	3.5
303.327	3.55
303.7	3.59
304.073	3.64
304.446	3.69
304.819	3.66
305.192	3.68
305.564	3.73
305.937	3.69
306.31	3.65
306.682	3.65
307.055	3.64
307.428	3.62
307.8	3.6
308.173	3.55
308.545	3.53
308.917	3.54
309.29	3.52
309.662	3.47
310.034	3.52
310.407	3.57
310.779	3.59
311.151	3.71
311.523	3.75
311.895	3.75
312.267	3.72
312.639	3.69
313.011	3.68
313.383	3.69
313.755	3.7
314.127	3.64
314.498	3.64
314.87	3.64
315.242	3.58
315.614	3.53
315.985	3.53
316.357	3.54
316.728	3.58
317.1	3.56
317.471	3.54
317.843	3.55
318.214	3.58
318.585	3.57
318.957	3.54
319.328	3.51
319.699	3.53
320.07	3.51
320.441	3.53
320.813	3.55
321.184	3.53
321.555	3.61
321.926	3.56
322.297	3.57
322.667	3.58
323.038	3.55
323.409	3.51
323.78	3.5
324.151	3.49
324.521	3.53
324.892	3.47
325.262	3.45
325.633	3.42
326.004	3.51
326.374	3.52
326.744	3.48
327.115	3.48
327.485	3.59
327.855	3.58
328.226	3.57
328.596	3.54
328.966	3.52
329.336	3.58
329.706	3.53
330.076	3.47
330.447	3.38
330.816	3.4
331.186	3.41
331.556	3.33
331.926	3.35
332.296	3.36
332.666	3.38
333.036	3.37
333.405	3.33
333.775	3.36
334.144	3.34
334.514	3.38
334.884	3.33
335.253	3.32
335.623	3.29
335.992	3.24
336.361	3.2
336.731	3.09
337.1	3.09
337.469	3.07
337.838	3.04
338.208	3.03
338.577	3.01
338.946	2.97
339.315	2.91
339.684	2.85
340.053	2.79
340.422	2.85
340.79	2.9
341.159	2.85
341.528	2.87
341.897	2.87
342.266	2.81
342.634	2.76
343.003	2.84
343.371	2.89
343.74	2.86
344.108	2.87
344.477	2.81
344.845	2.75
345.214	2.78
345.582	2.67
345.95	2.6
346.319	2.62
346.687	2.67
347.055	2.63
347.423	2.57
347.791	2.6
348.159	2.6
348.527	2.59
348.895	2.57
349.263	2.52
349.631	2.58
349.999	2.57
350.367	2.53
350.734	2.45
351.102	2.42
351.47	2.45
351.837	2.43
352.205	2.45
352.573	2.46
352.94	2.38
353.308	2.41
353.675	2.36
354.042	2.36
354.41	2.38
354.777	2.37
355.144	2.3
355.511	2.29
355.879	2.29
356.246	2.26
356.613	2.22
356.98	2.28
357.347	2.3
357.714	2.32
358.081	2.3
358.448	2.29
358.815	2.24
359.181	2.28
359.548	2.25
359.915	2.19
360.282	2.18
360.648	2.19
361.015	2.21
361.381	2.14
361.748	2.05
362.114	2.05
362.481	2.01
362.847	2.06
363.214	2.05
363.58	2.06
363.946	2.03
364.312	1.98
364.678	1.97
365.045	1.98
365.411	1.96
365.777	2.01
366.143	2.01
366.509	2.02
366.875	2
367.241	2
367.606	1.96
367.972	2
368.338	2
368.704	1.95
369.069	1.89
369.435	1.87
369.801	1.84
370.166	1.8
370.532	1.81
370.897	1.79
371.263	1.76
371.628	1.72
371.993	1.69
372.359	1.69
372.724	1.72
373.089	1.74
373.454	1.76
373.82	1.78
374.185	1.83
374.55	1.81
374.915	1.83
375.28	1.8
375.645	1.82
376.01	1.87
376.374	1.9
376.739	1.83
377.104	1.82
377.469	1.83
377.833	1.8
378.198	1.75
378.563	1.73
378.927	1.7
379.292	1.68
379.656	1.64
380.021	1.66
380.385	1.63
380.749	1.65
381.114	1.66
381.478	1.64
381.842	1.64
382.206	1.67
382.571	1.66
382.935	1.68
383.299	1.68
383.663	1.74
384.027	1.69
384.391	1.72
384.755	1.75
385.118	1.72
385.482	1.67
385.846	1.68
386.21	1.68
386.573	1.7
386.937	1.7
387.301	1.72
387.664	1.71
388.028	1.72
388.391	1.67
388.755	1.58
389.118	1.58
389.481	1.62
389.845	1.61
390.208	1.61
390.571	1.58
390.934	1.61
391.298	1.62
391.661	1.59
392.024	1.55
392.387	1.51
392.75	1.61
393.113	1.63
393.476	1.62
393.838	1.66
394.201	1.65
394.564	1.67
394.927	1.61
395.289	1.58
395.652	1.61
396.015	1.66
396.377	1.71
396.74	1.69
397.102	1.66
397.465	1.68
397.827	1.62
398.189	1.62
398.552	1.61
398.914	1.62
399.276	1.66
399.638	1.7
400	1.72
400.363	1.71
400.725	1.7
401.087	1.71
401.449	1.7
401.81	1.74
402.172	1.72
402.534	1.73
402.896	1.72
403.258	1.68
403.619	1.65
403.981	1.62
404.343	1.63
404.704	1.6
405.066	1.62
405.427	1.62
405.789	1.57
406.15	1.58
406.512	1.6
406.873	1.62
407.234	1.64
407.596	1.61
407.957	1.61
408.318	1.57
408.679	1.54
409.04	1.55
409.401	1.54
409.762	1.59
410.123	1.61
410.484	1.59
410.845	1.56
411.206	1.56
411.567	1.59
411.927	1.6
412.288	1.64
412.649	1.54
413.009	1.51
413.37	1.52
413.731	1.53
414.091	1.49
414.452	1.46
414.812	1.44
415.172	1.41
415.533	1.38
415.893	1.39
416.253	1.4
416.613	1.55
416.974	1.59
417.334	1.57
417.694	1.55
418.054	1.58
418.414	1.62
418.774	1.68
419.134	1.74
419.494	1.75
419.853	1.76
420.213	1.73
420.573	1.71
420.933	1.67
421.292	1.67
421.652	1.65
422.011	1.62
422.371	1.58
422.73	1.56
423.09	1.56
423.449	1.56
423.809	1.51
424.168	1.56
424.527	1.57
424.887	1.6
425.246	1.64
425.605	1.69
425.964	1.7
426.323	1.72
426.682	1.75
427.041	1.74
427.4	1.75
427.759	1.75
428.118	1.71
428.477	1.71
428.835	1.72
429.194	1.71
429.553	1.68
429.911	1.72
430.27	1.76
430.629	1.71
430.987	1.7
431.346	1.71
431.704	1.76
432.062	1.78
432.421	1.82
432.779	1.82
433.137	1.81
433.496	1.8
433.854	1.76
434.212	1.79
434.57	1.82
434.928	1.87
435.286	1.87
435.644	1.87
436.002	1.87
436.36	1.82
436.718	1.82
437.075	1.82
437.433	1.84
437.791	1.86
438.149	1.83
438.506	1.84
438.864	1.81
439.221	1.81
439.579	1.83
439.936	1.83
440.294	1.86
440.651	1.91
441.009	1.93
441.366	1.96
441.723	2
442.08	2.01
442.437	2
442.795	2
443.152	2
443.509	1.98
443.866	2
444.223	2
444.58	2
444.936	2.01
445.293	2.02
445.65	2
446.007	2
446.363	2.01
446.72	2.02
447.077	2.04
447.433	2.06
447.79	2.06
448.146	2.09
448.503	2.12
448.859	2.15
449.215	2.14
449.572	2.18
449.928	2.23
450.284	2.28
450.641	2.31
450.997	2.31
451.353	2.34
451.709	2.37
452.065	2.4
452.421	2.39
452.777	2.37
453.133	2.39
453.488	2.37
453.844	2.35
454.2	2.38
454.556	2.4
454.911	2.43
455.267	2.4
455.623	2.39
455.978	2.38
456.334	2.38
456.689	2.38
457.045	2.41
457.4	2.38
457.755	2.45
458.111	2.44
458.466	2.43
458.821	2.46
459.176	2.53
459.531	2.53
459.886	2.52
460.242	2.54
460.597	2.55
460.951	2.57
461.306	2.62
461.661	2.59
462.016	2.58
462.371	2.59
462.726	2.59
463.08	2.59
463.435	2.58
463.79	2.6
464.144	2.61
464.499	2.64
464.853	2.6
465.208	2.63
465.562	2.66
465.916	2.69
466.271	2.69
466.625	2.72
466.979	2.72
467.333	2.8
467.688	2.84
468.042	2.83
468.396	2.84
468.75	2.89
469.104	2.9
469.458	2.91
469.811	2.92
470.165	2.97
470.519	2.98
470.873	2.97
471.227	2.95
471.58	2.99
471.934	3.03
472.287	3.07
472.641	3.06
472.995	3.07
473.348	3.09
473.701	3.12
474.055	3.14
474.408	3.15
474.761	3.21
475.115	3.21
475.468	3.21
475.821	3.21
476.174	3.21
476.527	3.24
476.88	3.23
477.233	3.22
477.586	3.21
477.939	3.25
478.292	3.26
478.645	3.23
478.998	3.29
479.35	3.3
479.703	3.31
480.056	3.35
480.408	3.39
480.761	3.44
481.113	3.45
481.466	3.46
481.818	3.45
482.171	3.47
482.523	3.51
482.875	3.51
483.228	3.53
483.58	3.61
483.932	3.62
484.284	3.6
484.636	3.64
484.988	3.67
485.34	3.68
485.692	3.64
486.044	3.68
486.396	3.72
486.748	3.71
487.1	3.7
487.451	3.71
487.803	3.71
488.155	3.75
488.506	3.75
488.858	3.79
489.209	3.82
489.561	3.89
489.912	3.91
490.264	3.91
490.615	3.93
490.966	3.99
491.318	3.96
491.669	4.02
492.02	4.04
492.371	4.06
492.722	4.07
493.073	4.09
493.424	4.14
493.775	4.17
494.126	4.24
494.477	4.32
494.828	4.32
495.179	4.42
495.53	4.46
495.88	4.49
496.231	4.53
496.582	4.57
496.932	4.58
497.283	4.58
497.633	4.59
497.984	4.58
498.334	4.58
498.684	4.62
499.035	4.6
499.385	4.6
499.735	4.65
500.086	4.69
500.436	4.74
500.786	4.79
501.136	4.81
501.486	4.86
501.836	4.92
502.186	4.97
502.536	5
502.886	5.05
503.235	5.12
503.585	5.15
503.935	5.12
504.285	5.12
504.634	5.23
504.984	5.28
505.333	5.3
505.683	5.33
506.032	5.35
506.382	5.39
506.731	5.39
507.08	5.42
507.43	5.44
507.779	5.52
508.128	5.58
508.477	5.56
508.826	5.61
509.176	5.65
509.525	5.72
509.874	5.77
510.222	5.84
510.571	5.92
510.92	5.96
511.269	6.01
511.618	6.07
511.967	6.1
512.315	6.19
512.664	6.22
513.012	6.25
513.361	6.27
513.71	6.31
514.058	6.34
514.406	6.39
514.755	6.44
515.103	6.51
515.451	6.59
515.8	6.65
516.148	6.7
516.496	6.76
516.844	6.86
517.192	6.91
517.54	7.01
517.888	7.05
518.236	7.11
518.584	7.24
518.932	7.31
519.28	7.34
519.628	7.4
519.975	7.45
520.323	7.51
520.671	7.55
521.018	7.6
521.366	7.62
521.713	7.69
522.061	7.75
522.408	7.77
522.756	7.8
523.103	7.9
523.45	7.91
523.798	8
524.145	8.03
524.492	8.12
524.839	8.22
525.186	8.28
525.533	8.33
525.88	8.4
526.227	8.48
526.574	8.53
526.921	8.56
527.268	8.68
527.615	8.69
527.961	8.78
528.308	8.82
528.655	8.88
529.001	8.96
529.348	9.04
529.694	9.11
530.041	9.14
530.387	9.19
530.734	9.27
531.08	9.3
531.426	9.3
531.773	9.39
532.119	9.43
532.465	9.52
532.811	9.59
533.157	9.62
533.503	9.67
533.849	9.76
534.195	9.86
534.541	9.93
534.887	10.08
535.233	10.24
535.579	10.34
535.924	10.45
536.27	10.51
536.616	10.57
536.961	10.68
537.307	10.74
537.652	10.79
537.998	10.86
538.343	10.96
538.689	10.98
539.034	11.04
539.379	11.03
539.725	11.07
540.07	11.16
540.415	11.26
540.76	11.27
541.105	11.36
541.45	11.43
541.795	11.5
542.14	11.54
542.485	11.62
542.83	11.68
543.175	11.78
543.519	11.86
543.864	11.92
544.209	11.97
544.554	12.09
544.898	12.17
545.243	12.26
545.587	12.39
545.932	12.53
546.276	12.61
546.621	12.7
546.965	12.79
547.309	12.85
547.653	12.88
547.998	12.93
548.342	12.97
548.686	13.05
549.03	13.11
549.374	13.19
549.718	13.18
550.062	13.26
550.406	13.34
550.75	13.42
551.094	13.5
551.437	13.63
551.781	13.73
552.125	13.82
552.468	13.89
552.812	14.02
553.156	14.06
553.499	14.15
553.843	14.24
554.186	14.28
554.529	14.32
554.873	14.41
555.216	14.43
555.559	14.52
555.902	14.59
556.246	14.63
556.589	14.68
556.932	14.74
557.275	14.8
557.618	14.87
557.961	14.98
558.304	15.05
558.646	15.18
558.989	15.29
559.332	15.35
559.675	15.44
560.017	15.5
560.36	15.56
560.703	15.64
561.045	15.76
561.388	15.86
561.73	15.95
562.073	16.06
562.415	16.1
562.757	16.16
563.1	16.25
563.442	16.32
563.784	16.38
564.126	16.47
564.468	16.53
564.81	16.59
565.152	16.65
565.494	16.69
565.836	16.73
566.178	16.8
566.52	16.88
566.862	16.96
567.204	17.03
567.545	17.09
567.887	17.14
568.229	17.2
568.57	17.25
568.912	17.28
569.253	17.36
569.595	17.44
569.936	17.51
570.277	17.57
570.619	17.56
570.96	17.59
571.301	17.71
571.642	17.8
571.984	17.85
572.325	17.91
572.666	17.98
573.007	18.05
573.348	18.13
573.689	18.14
574.03	18.18
574.37	18.3
574.711	18.38
575.052	18.44
575.393	18.46
575.733	18.51
576.074	18.58
576.414	18.64
576.755	18.7
577.095	18.75
577.436	18.87
577.776	18.93
578.117	18.96
578.457	19.01
578.797	19.07
579.137	19.15
579.478	19.21
579.818	19.26
580.158	19.31
580.498	19.37
580.838	19.42
581.178	19.46
581.518	19.53
581.858	19.6
582.197	19.69
582.537	19.75
582.877	19.82
583.217	19.91
583.556	20
583.896	20.06
584.235	20.11
584.575	20.2
584.914	20.27
585.254	20.33
585.593	20.39
585.933	20.45
586.272	20.54
586.611	20.6
586.95	20.66
587.289	20.69
587.629	20.76
587.968	20.82
588.307	20.87
588.646	20.92
588.985	21.03
589.323	21.11
589.662	21.19
590.001	21.23
590.34	21.32
590.679	21.39
591.017	21.48
591.356	21.54
591.695	21.64
592.033	21.75
592.372	21.87
592.71	21.9
593.048	22
593.387	22.05
593.725	22.14
594.063	22.22
594.402	22.3
594.74	22.38
595.078	22.48
595.416	22.6
595.754	22.67
596.092	22.7
596.43	22.79
596.768	22.84
597.106	22.91
597.444	22.94
597.781	23.01
598.119	23.09
598.457	23.16
598.795	23.24
599.132	23.25
599.47	23.33
599.807	23.47
600.145	23.53
600.482	23.63
600.82	23.71
601.157	23.8
601.494	23.87
601.831	23.94
602.169	24.02
602.506	24.07
602.843	24.17
603.18	24.2
603.517	24.23
603.854	24.35
604.191	24.42
604.528	24.52
604.865	24.58
605.202	24.64
605.538	24.67
605.875	24.73
606.212	24.81
606.548	24.85
606.885	24.91
607.222	24.97
607.558	25.03
607.895	25.08
608.231	25.14
608.567	25.25
608.904	25.31
609.24	25.43
609.576	25.52
609.912	25.56
610.248	25.63
610.585	25.74
610.921	25.83
611.257	25.87
611.593	25.93
611.929	26
612.264	26.03
612.6	26.14
612.936	26.17
613.272	26.2
613.608	26.26
613.943	26.36
614.279	26.4
614.614	26.45
614.95	26.55
615.285	26.64
615.621	26.73
615.956	26.8
616.292	26.85
616.627	26.94
616.962	27.06
617.297	27.13
617.632	27.19
617.968	27.33
618.303	27.43
618.638	27.53
618.973	27.57
619.308	27.62
619.643	27.72
619.977	27.79
620.312	27.87
620.647	27.91
620.982	28.02
621.316	28.09
621.651	28.14
621.986	28.23
622.32	28.24
622.655	28.3
622.989	28.39
623.324	28.44
623.658	28.53
623.992	28.6
624.326	28.71
624.661	28.83
624.995	28.94
625.329	29.02
625.663	29.05
625.997	29.17
626.331	29.31
626.665	29.35
626.999	29.48
627.333	29.53
627.667	29.64
628.001	29.68
628.334	29.72
628.668	29.77
629.002	29.85
629.335	29.96
629.669	30.01
630.002	30.05
630.336	30.17
630.669	30.18
631.003	30.3
631.336	30.36
631.669	30.44
632.003	30.51
632.336	30.58
632.669	30.65
633.002	30.73
633.335	30.84
633.668	30.97
634.001	31.05
634.334	31.13
634.667	31.18
635	31.28
635.333	31.38
635.665	31.47
635.998	31.58
636.331	31.62
636.663	31.64
636.996	31.64
637.328	31.69
637.661	31.75
637.993	31.82
638.326	31.88
638.658	31.98
638.99	32.04
639.323	32.13
639.655	32.17
639.987	32.25
640.319	32.37
640.651	32.48
640.983	32.55
641.315	32.62
641.647	32.73
641.979	32.83
642.311	32.84
642.643	32.92
642.975	32.96
643.306	32.99
643.638	33.05
643.97	33.18
644.301	33.27
644.633	33.37
644.964	33.43
645.296	33.48
645.627	33.54
645.959	33.64
646.29	33.72
646.621	33.79
646.952	33.94
647.284	34.02
647.615	34.01
647.946	34.05
648.277	34.1
648.608	34.23
648.939	34.28
649.27	34.34
649.601	34.38
649.931	34.42
650.262	34.45
650.593	34.53
650.924	34.56
651.254	34.67
651.585	34.79
651.915	34.82
652.246	34.91
652.576	35
652.907	35.15
653.237	35.21
653.568	35.29
653.898	35.39
654.228	35.45
654.558	35.58
654.888	35.6
655.219	35.6
655.549	35.43
655.879	35.14
656.209	34.85
656.539	34.64
656.868	34.59
657.198	34.56
657.528	34.57
657.858	34.55
658.188	34.54
658.517	34.55
658.847	34.6
659.176	34.66
659.506	34.72
659.835	34.81
660.165	34.92
660.494	34.98
660.824	35.04
661.153	35.1
661.482	35.2
661.811	35.27
662.14	35.37
662.47	35.44
662.799	35.55
663.128	35.69
663.457	35.82
663.786	35.93
664.114	36.08
664.443	36.3
664.772	36.47
665.101	36.6
665.43	36.81
665.758	37.01
666.087	37.18
666.415	37.36
666.744	37.53
667.072	37.73
667.401	37.92
667.729	38.03
668.058	38.05
668.386	38.13
668.714	38.19
669.042	38.22
669.371	38.28
669.699	38.27
670.027	38.37
670.355	38.5
670.683	38.65
671.011	38.66
671.339	38.76
671.666	38.86
671.994	38.92
672.322	39
672.65	39.04
672.977	39.07
673.305	39.12
673.633	39.1
673.96	39.17
674.288	39.18
674.615	39.16
674.943	39.19
675.27	39.21
675.597	39.22
675.924	39.25
676.252	39.26
676.579	39.27
676.906	39.39
677.233	39.52
677.56	39.53
677.887	39.55
678.214	39.72
678.541	39.78
678.868	39.88
679.195	39.91
679.521	40.02
679.848	40.12
680.175	40.18
680.501	40.14
680.828	40.15
681.154	40.23
681.481	40.32
681.807	40.29
682.134	40.36
682.46	40.47
682.787	40.55
683.113	40.51
683.439	40.63
683.765	40.73
684.091	40.81
684.417	40.85
684.743	40.83
685.069	40.81
685.395	40.92
685.721	40.95
686.047	40.89
686.373	40.94
686.699	41.08
687.024	41.08
687.35	41.13
687.676	41.22
688.001	41.24
688.327	41.24
688.652	41.28
688.978	41.24
689.303	41.33
689.629	41.42
689.954	41.41
690.279	41.37
690.604	41.44
690.93	41.49
691.255	41.43
691.58	41.42
691.905	41.46
692.23	41.54
692.555	41.62
692.88	41.64
693.204	41.67
693.529	41.67
693.854	41.69
694.179	41.64
694.503	41.65
694.828	41.75
695.153	41.89
695.477	42
695.802	42.1
696.126	42.14
696.451	42.1
696.775	42.12
697.099	42.21
697.423	42.38
697.748	42.42
698.072	42.47
698.396	42.5
698.72	42.56
699.044	42.55
699.368	42.57
699.692	42.65
700.016	42.78
700.34	42.75
700.664	42.87
700.987	42.89
701.311	42.91
701.635	42.95
701.958	43.09
702.282	43.04
702.606	43.07
702.929	43.04
703.252	43.02
703.576	43.13
703.899	43.25
704.223	43.21
704.546	43.25
704.869	43.4
705.192	43.4
705.515	43.41
705.838	43.49
706.161	43.52
706.484	43.61
706.807	43.63
707.13	43.58
707.453	43.59
707.776	43.68
708.099	43.61
708.421	43.56
708.744	43.7
709.067	43.7
709.389	43.74
709.712	43.78
710.034	43.79
710.357	43.89
710.679	43.9
711.001	43.94
711.324	43.95
711.646	44.04
711.968	44.23
712.29	44.16
712.612	44.22
712.935	44.27
713.257	44.27
713.579	44.34
713.9	44.3
714.222	44.39
714.544	44.39
714.866	44.39
715.188	44.41
715.509	44.21
715.831	44.25
716.153	44.19
716.474	44.14
716.796	44.22
717.117	44.17
717.439	44.22
717.76	44.19
718.081	44.2
718.403	44.26
718.724	44.3
719.045	44.53
719.366	44.58
719.687	44.66
720.009	44.8
720.33	44.85
720.651	44.97
720.971	45.01
721.292	45.03
721.613	45.07
721.934	45.06
722.255	45.09
722.575	45.1
722.896	45.12
723.217	45.1
723.537	45.11
723.858	45
724.178	45
724.499	45.07
724.819	45.01
725.139	45.1
725.46	45.16
725.78	45.28
726.1	45.26
726.42	45.19
726.74	45.29
727.06	45.32
727.38	45.55
727.7	45.63
728.02	45.64
728.34	45.81
728.66	45.83
728.98	45.86
729.299	45.87
729.619	45.87
729.939	46
730.258	46.03
730.578	46.01
730.897	46.02
731.217	45.97
731.536	45.98
731.856	46.03
732.175	46.07
732.494	46.11
732.814	46.13
733.133	46.18
733.452	46.25
733.771	46.35
734.09	46.41
734.409	46.28
734.728	46.31
735.047	46.36
735.366	46.28
735.684	46.28
736.003	46.31
736.322	46.25
736.641	46.29
736.959	46.28
737.278	46.32
737.596	46.21
737.915	46.42
738.233	46.42
738.552	46.48
738.87	46.48
739.188	46.56
739.507	46.64
739.825	46.64
740.143	46.63
740.461	46.73
740.779	46.7
741.097	46.76
741.415	46.69
741.733	46.79
742.051	46.74
742.369	46.86
742.687	46.82
743.004	46.7
743.322	46.79
743.64	46.94
743.957	46.86
744.275	46.93
744.593	47.1
744.91	47.17
745.227	47.16
745.545	47.26
745.862	47.22
746.179	47.34
746.497	47.46
746.814	47.57
747.131	47.62
747.448	47.84
747.765	47.86
748.082	47.95
748.399	47.99
748.716	48.14
749.033	48.12
749.35	48.25
749.667	48.19
749.983	48.26
750.3	48.15
750.617	48.2
750.933	48.1
751.25	48.1
751.566	48.05
751.883	48.12
752.199	48.01
752.516	48.05
752.832	48
753.148	48.11
753.464	48.26
753.781	48.39
754.097	48.36
754.413	48.37
754.729	48.38
755.045	48.41
755.361	48.32
755.677	48.3
755.992	48.37
756.308	48.48
756.624	48.39
756.94	48.3
757.255	48.41
757.571	48.51
757.887	48.53
758.202	48.58
758.518	48.53
758.833	48.57
759.148	48.59
759.464	48.51
759.779	48.48
760.094	48.54
760.41	48.56
760.725	48.38
761.04	48.25
761.355	48.25
761.67	48.1
761.985	48.14
762.3	48.23
762.615	48.24
762.93	48.36
763.244	48.42
763.559	48.49
763.874	48.53
764.188	48.59
764.503	48.63
764.818	48.66
765.132	48.82
765.447	48.84
765.761	48.84
766.075	48.94
766.39	48.85
766.704	48.86
767.018	48.75
767.332	48.76
767.646	48.75
767.961	48.79
768.275	48.78
768.589	48.74
768.903	48.87
769.216	48.84
769.53	48.86
769.844	49
770.158	49.04
770.472	49.23
770.785	49.21
771.099	49.34
771.413	49.45
771.726	49.44
772.04	49.64
772.353	49.7
772.666	49.8
772.98	49.98
773.293	49.87
773.606	49.9
773.919	49.86
774.233	49.87
774.546	49.89
774.859	49.86
775.172	50.03
775.485	49.96
775.798	49.92
776.111	49.75
776.423	49.7
776.736	49.8
777.049	49.79
777.362	49.89
777.674	49.97
777.987	49.92
778.299	50.06
778.612	50.02
778.924	50.19
779.237	50.25
779.549	50.57
779.862	50.59
780.174	50.69
780.486	50.72
780.798	50.63
781.11	50.67
781.422	50.9
781.735	50.73
782.046	50.76
782.358	50.51
782.67	50.55
782.982	50.37
783.294	50.31
783.606	50.33
783.917	50.14
784.229	50.18
784.541	50.04
784.852	49.74
785.164	49.76
785.475	49.78
785.787	49.87
786.098	49.87
786.41	50.05
786.721	50.13
787.032	50.14
787.343	50.37
787.654	50.53
787.966	50.6
788.277	50.7
788.588	50.86
788.899	50.86
789.209	50.9
789.52	51.01
789.831	51
790.142	51.03
790.453	50.96
790.763	50.94
791.074	50.74
791.385	50.83
791.695	50.87
792.006	50.83
792.316	51.02
792.626	50.93
792.937	50.85
793.247	50.81
793.557	50.85
793.868	51.1
794.178	51.27
794.488	51.46
794.798	51.47
795.108	51.72
795.418	51.69
795.728	51.75
796.038	51.92
796.348	52.02
796.657	52.18
796.967	52.1
797.277	51.84
797.587	51.67
797.896	51.6
798.206	51.55
798.515	51.45
798.825	51.67
799.134	51.74
799.444	51.98
799.753	51.86
800.062	51.85
800.371	52.09
800.681	52.32
800.99	52.3
801.299	52.45
801.608	52.65
801.917	52.9
802.226	52.88
802.535	52.78
802.844	52.49
803.152	52.68
803.461	52.81
803.77	52.66
804.078	52.45
804.387	52.52
804.696	52.44
805.004	52.78
805.313	52.64
805.621	52.62
805.93	52.67
806.238	52.73
806.546	52.61
806.854	52.4
807.163	52.49
807.471	52.75
807.779	53.04
808.087	53.21
808.395	52.97
808.703	52.9
809.011	52.97
809.319	53.14
809.626	53.33
809.934	53.55
810.242	53.74
810.55	53.72
810.857	53.58
811.165	53.47
811.472	53.48
811.78	53.42
812.087	53.73
812.395	53.48
812.702	53.16
813.009	53.32
813.317	52.88
813.624	52.84
813.931	52.98
814.238	53.33
814.545	53.42
814.852	53.23
815.159	53.18
815.466	53.13
815.773	53.17
816.08	53.42
816.387	53.22
816.693	53.54
817	53.53
817.307	53.36
817.613	53.25
817.92	53.68
818.226	53.86
818.533	53.85
818.839	53.35
819.146	53.41
819.452	53.22
819.758	53.28
820.064	53.29
820.371	53.26
820.677	53.44
820.983	53.32
821.289	52.87
821.595	52.83
821.901	52.96
822.207	53.38
822.512	53.52
822.818	53.72
823.124	53.92
823.43	54.21
823.735	54.41
824.041	54.3
824.347	54.59
824.652	54.7
824.957	54.89
825.263	55.28
825.568	55.19
825.874	55.62
826.179	55.7
826.484	55.56
826.789	55.71
827.094	55.73
827.399	55.8
827.705	55.71
828.01	55.4
828.314	55.54
828.619	55.47
828.924	55.48
829.229	55.26
829.534	54.97
829.838	54.83
830.143	54.54
830.448	54.18
830.752	54.06
831.057	53.93
831.361	54.02
831.666	54.01
831.97	53.7
832.274	54.1
832.579	53.79
832.883	54.3
833.187	54.31
833.491	54.1
833.795	54.69
834.099	54.65
834.403	55.19
834.707	55.18
835.011	55.07
835.315	55.2
835.619	54.69
835.923	55.22
836.226	55.05
836.53	54.99
836.834	55.13
837.137	55.13
837.441	55.42
837.744	55.08
838.048	55.02
838.351	55.04
838.654	55.44
838.958	55.62
839.261	55.28
839.564	54.91
839.867	54.84
840.17	54.92
840.473	54.68
840.776	54.5
841.079	54.32
841.382	54.87
841.685	54.83
841.988	54.17
842.291	54.09
842.593	54.51
842.896	55
843.199	55.53
843.501	55.32
843.804	55.55
844.106	55.58
844.409	55.91
844.711	55.68
845.013	55.54
845.316	56.1
845.618	56.23
845.92	55.76
846.222	55.24
846.524	54.74
846.826	54.76
847.128	54.92
847.43	55.45
847.732	55.42
848.034	55.29
848.336	55.58
848.638	55.65
848.939	55.85
849.241	56.19
849.543	56.06
849.844	56.39
850.146	56.71
850.447	55.91
850.749	55.1
851.05	54.69
851.351	54.97
851.653	54.65
851.954	54.97
852.255	55.63
852.556	55.57
852.857	56.45
853.158	56
853.459	56.14
853.76	56.58
854.061	57.17
854.362	57.31
854.663	57.39
854.964	58.19
855.264	57.33
855.565	56.12
855.866	55.63
856.166	55.41
856.467	55.76
856.767	55.41
857.068	55
857.368	54.86
857.668	54.97
857.969	54.59
858.269	53.68
858.569	54.21
858.869	54.43
859.169	54.84
859.469	54.79
859.769	55.1
860.069	55.32
860.369	55.36
860.669	55.77
860.969	55.89
861.269	56.38
861.568	57.41
861.868	56.96
862.168	56.83
862.467	55.85
862.767	55.55
863.066	55.18
863.366	54.9
863.665	55.65
863.964	55.12
864.264	54.96
864.563	54.45
864.862	53.04
865.161	52.66
865.46	52.93
865.759	53.91
866.058	54.71
866.357	54.52
866.656	54.41
866.955	53.26
867.254	52.97
867.552	53.24
867.851	53.87
868.15	54.87
868.448	55.69
868.747	55.5
869.045	55.24
869.344	54.65
869.642	55.03
869.941	54.54
870.239	55.11
870.537	55.35
870.836	54.46
871.134	54.23
871.432	53.46
871.73	52.95
872.028	53.15
872.326	53.45
872.624	52.81
872.922	52.42
873.22	54.49
873.517	54.22
873.815	54.63
874.113	54.7
874.411	54.38
874.708	54.82
875.006	55.6
875.303	55.85
875.601	55.51
875.898	55.96
876.195	56.1
876.493	54.65
876.79	55.24
877.087	53.87
877.384	54.16
877.682	53.88
877.979	53.59
878.276	52.56
878.573	52.05
878.87	52.02
879.166	52.12
879.463	51.87
